Part protocol
File name;Part_Cali_MP-001_2019-10-17_10-40-05__NOK.csv
Protocol version;6.00.03

Index;Result information;Process values - curve related;Process values - EO related;Evaluation objects settings;Switch signal settings;Device information;Servo;Channel-X settings;Channel-Y settings;Cycle control settings;Evaluation settings;Trigger Y settings;Block settings;Measuring curve;Measuring points;Sequence;
Line;10;30;40;70;100;120;140;150;190;220;240;250;260;270;280;2510;



Result information
Date;2019/10/17
Time;10:40:05
Cycle number;120
Total result;NOK
Triggered switch signals;
Part serial number;
Measuring program name;-----
Measuring program number;1
Zero X offset;0.00;s
Tara Y offset;0.000;Kn









Process values - curve related
Block X;221.75;s;XMIN-X;0.00;s
Block Y;0.000;Kn;XMIN-Y;0.001;Kn
Ref X;38.74;s;XMAX-X;221.75;s
Peak-peak X;221.75;s;XMAX-Y;0.000;Kn
Peak-peak Y;0.511;Kn;YMIN-X;203.10;s
;;;YMIN-Y;-0.019;Kn
;;;YMAX-X;193.62;s
;;;YMAX-Y;0.491;Kn

Process values - EO related;Result;Entry;Exit;XMIN-X;XMIN-Y;XMAX-X;XMAX-Y;YMIN-Y;YMIN-X;YMAX-Y;YMAX-X;Calculated result;NOK cause;Violation X;Violation Y;Ref X;Ref Y;X at Delta-Y;Entrance-X;Entrance-Y;Exit-X;Exit-Y
;;;;s;Kn;s;Kn;Kn;s;Kn;s;-;-;s;Kn;s;Kn;s;s;Kn;s;Kn
EO-01;None;
EO-02;None;
EO-03;None;
EO-04;None;
EO-05;None;
EO-06;None;
EO-07;None;
EO-08;None;
EO-09;None;
EO-10;None;


















Evaluation objects settings;Reaction;X reference;Y-Reference;XMin;XMax;YMin;YMax;Entry;Exit;Curve part;Catch zone X;Catch zone Y;EO Name;Description;Re-entry ignored;Generate statistics;X-Hysteresis;Y-Hysteresis;Down sampling rate;Calc limit min;Calc limit max;Grad limit min;Grad limit max;Hyst limit min;Hyst limit max;Speed limit min;Speed limit max;Time limit min;Time limit max;Is curve inside box;GetRef type;CalcInput1 | dx;CalcInput2 | dx;Calc operation;Work limit min;Work limit max;Average limit min;Average limit max;Max bending;Detection dX;Signal;Operation;State;Visualization offset X;Visualization offset Y;Delta-Y Max;X1Min;X1Max;X2Min;X2Max;Y1Min;Y1Max;Y2Min;Y2Max;-
EO-01;OFF
EO-02;OFF
EO-03;OFF
EO-04;OFF
EO-05;OFF
EO-06;OFF
EO-07;OFF
EO-08;OFF
EO-09;OFF
EO-10;OFF



















Switch signal settings;Channel;Threshold at;;Trigger from;Reference;Latch until
Type S1;OFF
Type S2;OFF

















Device information
Device type;maXYmos NC
Device type number;5847B0
Device serial number;05524NC
Firmware version;1.5.60 (r483ab8)
-
-
-
-
-
IP Address;192.168.1.22
Network name;Cali
Profibus address;10
-
-
-
Device name;Cali
Company name;
Comment;

Servo
Servo version;n/a;Servo max. speed;300.000;mm/s
Type NC Joining Module;n/a;Range min.;0.00;mm
Serial number NC j.mod.;n/a;Range max.;138.00;mm
Brake;Holding Brake 0.00 Nm;Servo reference position;0.00;mm
Operating mode;Manual Work;Max. jog speed;10.000;mm/s
Brake test;Disabled;Jog. range min;0.00;mm
Automatic power;False;Jog. range max;400.00;mm
;;Reference speed;10.000;mm/s

Channel-X settings
Use the settings from global setup;True
Sensor-X type;±10V
Unit;mm
Used range from;0.00;mm
Used range to;400.00;mm
Decimal places;2 (iiiii.ff)
Scaling by;Teach-In
Point 1;0.00;mm;0.000;%
Point 2;100.00;mm;100.000;%
Invert signal;FALSE
Filter;500 Hz
Test point;0.00;mm
Tolerance;2.00;mm
Enable sensor test by dig-input;TRUE
Zoom from;0.00;mm
Zoom to;100.00;mm
Master Measurement Enable;FALSE
Master Measurement Nominal Position;0.00;mm
Encoder interpolation factor;-
Encoder electrical interface;-
Encoder referencing type;-
Encoder referencing edge;-
Encoder pulses per minute;-
Encoder use every nth-mark;-
Reference;-
Encoder reference points;-
Encoder coding;-
Encoder width;-
Encoder optimization;-
Encoder clock frequency;-
Termination resistor;-








Channel-Y settings
Use the settings from global setup;True
Sensor-Y type;±10V
Unit;Kn
Used range from;0.000;Kn
Used range to;30.000;Kn
Decimal places;3 (iiii.fff)
Scaling by;Calibration Sheet
Sensitivity;1000.000;Kn;-4.000;V
Zero point;0.000;Kn;0.000;V
Invert signal;FALSE
Filter;OFF
Piezo reset;-
Test point;0.000;Kn
Tolerance;0.100;Kn
Enable sensor test by dig-input;FALSE
Zoom from;0.000;Kn
Zoom to;1000.000;Kn












Cycle control settings
Use the settings from global setup;True
Measuring function;Y (t)
Delta-X;User-Defined;0.1000;s
START condition;Dig-Input
STOP condition;Dig-Input
Cycle time out;500.000;s
Gradient Delta X;-












Evaluation settings
Capture only first NOK-EO for statistics;False
Hysteresis-X;0.0;%
Hysteresis-Y;0.0;%






Trigger Y settings
Threshold;0.000;Kn
Value X at Trigger Y;0.00;s
Approach from;BELOW






Block settings
Value X at block;XMAX
Block at;0.00;s







Measuring curve
Number of measuring points;2220
Ref. Graph on;ABSOLUTE
Curve segment;0;2220;


Time;X(ABSOLUTE);Y;X(ABSOLUTE)


s;s;Kn;s
0.0001;0.00010;0.00061;0.00010
0.1000;0.10003;0.00132;0.10003
0.2001;0.20006;0.00106;0.20006
0.3001;0.30009;0.00106;0.30009
0.4001;0.40012;0.00113;0.40012
0.5001;0.50014;0.00094;0.50014
0.6002;0.60017;0.00084;0.60017
0.7002;0.70020;0.00098;0.70020
0.8002;0.80023;0.00119;0.80023
0.9003;0.90026;0.00143;0.90026
1.0003;1.00029;0.00139;1.00029
1.1003;1.10032;0.00124;1.10032
1.2003;1.20035;0.00109;1.20035
1.3004;1.30037;0.00126;1.30037
1.4004;1.40040;0.00131;1.40040
1.5004;1.50043;0.00143;1.50043
1.6005;1.60046;0.00146;1.60046
1.7005;1.70049;0.00134;1.70049
1.8005;1.80052;0.00106;1.80052
1.9005;1.90055;0.00128;1.90055
2.0006;2.00058;0.00133;2.00058
2.1006;2.10060;0.00145;2.10060
2.2006;2.20063;0.00121;2.20063
2.3007;2.30066;0.00128;2.30066
2.4007;2.40069;0.00112;2.40069
2.5007;2.50072;0.00088;2.50072
2.6007;2.60075;0.00158;2.60075
2.7008;2.70078;0.00090;2.70078
2.8008;2.80081;0.00135;2.80081
2.9008;2.90084;0.00079;2.90084
3.0009;3.00086;0.00128;3.00086
3.1009;3.10089;0.00128;3.10089
3.2009;3.20092;0.00156;3.20092
3.3010;3.30095;0.00140;3.30095
3.4010;3.40098;0.00138;3.40098
3.5010;3.50101;0.00118;3.50101
3.6010;3.60104;0.00124;3.60104
3.7011;3.70107;0.00161;3.70107
3.8011;3.80109;0.00107;3.80109
3.9011;3.90112;0.00121;3.90112
4.0012;4.00115;0.00134;4.00115
4.1012;4.10118;0.00131;4.10118
4.2012;4.20121;0.00137;4.20121
4.3012;4.30124;0.00128;4.30124
4.4013;4.40127;0.00118;4.40127
4.5013;4.50130;0.00139;4.50130
4.6013;4.60132;0.00105;4.60132
4.7014;4.70135;0.00120;4.70135
4.8014;4.80138;0.00153;4.80138
4.9014;4.90141;0.00133;4.90141
5.0014;5.00144;0.00127;5.00144
5.1015;5.10147;0.00158;5.10147
5.2015;5.20150;0.00145;5.20150
5.3015;5.30153;0.00148;5.30153
5.4016;5.40156;0.00128;5.40156
5.5016;5.50158;0.00069;5.50158
5.6016;5.60161;0.00101;5.60161
5.7016;5.70164;0.00103;5.70164
5.8017;5.80167;0.00108;5.80167
5.9017;5.90170;0.00139;5.90170
6.0017;6.00173;0.00094;6.00173
6.1018;6.10176;0.00149;6.10176
6.2018;6.20179;0.00109;6.20179
6.3018;6.30181;0.00138;6.30181
6.4018;6.40184;0.00177;6.40184
6.5019;6.50187;0.00153;6.50187
6.6019;6.60190;0.00089;6.60190
6.7019;6.70193;0.00127;6.70193
6.8020;6.80196;0.00161;6.80196
6.9020;6.90199;0.00113;6.90199
7.0020;7.00202;0.00135;7.00202
7.1020;7.10204;0.00143;7.10204
7.2021;7.20207;0.00115;7.20207
7.3021;7.30210;0.00151;7.30210
7.4021;7.40213;0.00138;7.40213
7.5022;7.50216;0.00103;7.50216
7.6022;7.60219;0.00120;7.60219
7.7022;7.70222;0.00133;7.70222
7.8022;7.80225;0.00097;7.80225
7.9023;7.90228;0.00103;7.90228
8.0023;8.00230;0.00159;8.00230
8.1023;8.10233;0.00094;8.10233
8.2024;8.20236;0.00135;8.20236
8.3024;8.30239;0.00140;8.30239
8.4024;8.40242;0.00134;8.40242
8.5024;8.50245;0.00165;8.50245
8.6025;8.60248;0.00127;8.60248
8.7025;8.70251;0.00135;8.70251
8.8025;8.80253;0.00180;8.80253
8.9026;8.90256;0.00131;8.90256
9.0026;9.00259;0.00148;9.00259
9.1026;9.10262;0.00147;9.10262
9.2026;9.20265;0.00161;9.20265
9.3027;9.30268;0.00136;9.30268
9.4027;9.40271;0.00098;9.40271
9.5027;9.50274;0.00142;9.50274
9.6028;9.60276;0.00147;9.60276
9.7028;9.70279;0.00128;9.70279
9.8028;9.80282;0.00112;9.80282
9.9029;9.90285;0.00085;9.90285
10.0029;10.00288;0.00097;10.00288
10.1029;10.10291;0.00133;10.10291
10.2029;10.20294;0.00135;10.20294
10.3030;10.30297;0.00099;10.30297
10.4030;10.40300;0.00128;10.40300
10.5030;10.50302;0.00113;10.50302
10.6031;10.60305;0.00135;10.60305
10.7031;10.70308;0.00109;10.70308
10.8031;10.80311;0.00112;10.80311
10.9031;10.90314;0.00114;10.90314
11.0032;11.00317;0.00081;11.00317
11.1032;11.10320;0.00108;11.10320
11.2032;11.20323;0.00094;11.20323
11.3033;11.30325;0.00107;11.30325
11.4033;11.40328;0.00112;11.40328
11.5033;11.50331;0.00162;11.50331
11.6033;11.60334;0.00126;11.60334
11.7034;11.70337;0.00152;11.70337
11.8034;11.80340;0.00126;11.80340
11.9034;11.90343;0.00128;11.90343
12.0035;12.00346;0.00090;12.00346
12.1035;12.10348;0.00119;12.10348
12.2035;12.20351;0.00140;12.20351
12.3035;12.30354;0.00091;12.30354
12.4036;12.40357;0.00145;12.40357
12.5036;12.50360;0.00094;12.50360
12.6036;12.60363;0.00090;12.60363
12.7037;12.70366;0.00082;12.70366
12.8037;12.80369;0.00095;12.80369
12.9037;12.90372;0.00121;12.90372
13.0037;13.00374;0.00156;13.00374
13.1038;13.10377;0.00102;13.10377
13.2038;13.20380;0.00090;13.20380
13.3038;13.30383;0.00109;13.30383
13.4039;13.40386;0.00097;13.40386
13.5039;13.50389;0.00115;13.50389
13.6039;13.60392;0.00128;13.60392
13.7039;13.70395;0.00129;13.70395
13.8040;13.80397;0.00081;13.80397
13.9040;13.90400;0.00096;13.90400
14.0040;14.00403;0.00141;14.00403
14.1041;14.10406;0.00127;14.10406
14.2041;14.20409;0.00092;14.20409
14.3041;14.30412;0.00120;14.30412
14.4041;14.40415;0.00105;14.40415
14.5042;14.50418;0.00066;14.50418
14.6042;14.60420;0.00110;14.60420
14.7042;14.70423;0.00085;14.70423
14.8043;14.80426;0.00105;14.80426
14.9043;14.90429;0.00119;14.90429
15.0043;15.00432;0.00128;15.00432
15.1043;15.10435;0.00085;15.10435
15.2044;15.20438;0.00115;15.20438
15.3044;15.30441;0.00092;15.30441
15.4044;15.40444;0.00088;15.40444
15.5045;15.50446;0.00110;15.50446
15.6045;15.60449;0.00125;15.60449
15.7045;15.70452;0.00078;15.70452
15.8046;15.80455;0.00132;15.80455
15.9046;15.90458;0.00099;15.90458
16.0046;16.00461;0.00113;16.00461
16.1046;16.10464;0.00093;16.10464
16.2047;16.20467;0.00103;16.20467
16.3047;16.30469;0.00077;16.30469
16.4047;16.40472;0.00124;16.40472
16.5048;16.50475;0.00110;16.50475
16.6048;16.60478;0.00125;16.60478
16.7048;16.70481;0.00107;16.70481
16.8048;16.80484;0.00128;16.80484
16.9049;16.90487;0.00101;16.90487
17.0049;17.00490;0.00082;17.00490
17.1049;17.10492;0.00088;17.10492
17.2050;17.20495;0.00098;17.20495
17.3050;17.30498;0.00103;17.30498
17.4050;17.40501;0.00098;17.40501
17.5050;17.50504;0.00114;17.50504
17.6051;17.60507;0.00128;17.60507
17.7051;17.70510;0.00114;17.70510
17.8051;17.80513;0.00122;17.80513
17.9052;17.90516;0.00082;17.90516
18.0052;18.00518;0.00102;18.00518
18.1052;18.10521;0.00128;18.10521
18.2052;18.20524;0.00090;18.20524
18.3053;18.30527;0.00102;18.30527
18.4053;18.40530;0.00077;18.40530
18.5053;18.50533;0.00134;18.50533
18.6054;18.60536;0.00107;18.60536
18.7054;18.70539;0.00143;18.70539
18.8054;18.80541;0.00111;18.80541
18.9054;18.90544;0.00096;18.90544
19.0055;19.00547;0.00110;19.00547
19.1055;19.10550;0.00090;19.10550
19.2055;19.20553;0.00058;19.20553
19.3056;19.30556;0.00101;19.30556
19.4056;19.40559;0.00108;19.40559
19.5056;19.50562;0.00113;19.50562
19.6056;19.60564;0.00102;19.60564
19.7057;19.70567;0.00129;19.70567
19.8057;19.80570;0.00108;19.80570
19.9057;19.90573;0.00115;19.90573
20.0058;20.00576;0.00110;20.00576
20.1058;20.10579;0.00093;20.10579
20.2058;20.20582;0.00139;20.20582
20.3058;20.30585;0.00113;20.30585
20.4059;20.40588;0.00093;20.40588
20.5059;20.50590;0.00078;20.50590
20.6059;20.60593;0.00094;20.60593
20.7060;20.70596;0.00135;20.70596
20.8060;20.80599;0.00123;20.80599
20.9060;20.90602;0.00118;20.90602
21.0060;21.00605;0.00111;21.00605
21.1061;21.10608;0.00077;21.10608
21.2061;21.20611;0.00078;21.20611
21.3061;21.30613;0.00122;21.30613
21.4062;21.40616;0.00072;21.40616
21.5062;21.50619;0.00092;21.50619
21.6062;21.60622;0.00118;21.60622
21.7062;21.70625;0.00116;21.70625
21.8063;21.80628;0.00104;21.80628
21.9063;21.90631;0.00124;21.90631
22.0063;22.00634;0.00108;22.00634
22.1064;22.10636;0.00109;22.10636
22.2064;22.20639;0.00078;22.20639
22.3064;22.30642;0.00071;22.30642
22.4065;22.40645;0.00120;22.40645
22.5065;22.50648;0.00110;22.50648
22.6065;22.60651;0.00109;22.60651
22.7065;22.70654;0.00049;22.70654
22.8066;22.80657;0.00106;22.80657
22.9066;22.90659;0.00109;22.90659
23.0066;23.00662;0.00141;23.00662
23.1067;23.10665;0.00087;23.10665
23.2067;23.20668;0.00085;23.20668
23.3067;23.30671;0.00092;23.30671
23.4067;23.40674;0.00112;23.40674
23.5068;23.50677;0.00123;23.50677
23.6068;23.60680;0.00076;23.60680
23.7068;23.70683;0.00081;23.70683
23.8069;23.80685;0.00097;23.80685
23.9069;23.90688;0.00094;23.90688
24.0069;24.00691;0.00079;24.00691
24.1069;24.10694;0.00141;24.10694
24.2070;24.20697;0.00147;24.20697
24.3070;24.30700;0.00105;24.30700
24.4070;24.40703;0.00125;24.40703
24.5071;24.50706;0.00084;24.50706
24.6071;24.60708;0.00094;24.60708
24.7071;24.70711;0.00091;24.70711
24.8071;24.80714;0.00096;24.80714
24.9072;24.90717;0.00112;24.90717
25.0072;25.00720;0.00103;25.00720
25.1072;25.10723;0.00095;25.10723
25.2073;25.20726;0.00116;25.20726
25.3073;25.30729;0.00118;25.30729
25.4073;25.40731;0.00116;25.40731
25.5073;25.50734;0.00113;25.50734
25.6074;25.60737;0.00115;25.60737
25.7074;25.70740;0.00089;25.70740
25.8074;25.80743;0.00141;25.80743
25.9075;25.90746;0.00130;25.90746
26.0075;26.00749;0.00123;26.00749
26.1075;26.10752;0.00117;26.10752
26.2075;26.20755;0.00117;26.20755
26.3076;26.30757;0.00124;26.30757
26.4076;26.40760;0.00167;26.40760
26.5076;26.50763;0.00113;26.50763
26.6077;26.60766;0.00059;26.60766
26.7077;26.70769;0.00081;26.70769
26.8077;26.80772;0.00124;26.80772
26.9077;26.90775;0.00096;26.90775
27.0078;27.00778;0.00083;27.00778
27.1078;27.10780;0.00141;27.10780
27.2078;27.20783;0.00081;27.20783
27.3079;27.30786;0.00109;27.30786
27.4079;27.40789;0.00115;27.40789
27.5079;27.50792;0.00095;27.50792
27.6079;27.60795;0.00106;27.60795
27.7080;27.70798;0.00103;27.70798
27.8080;27.80801;0.00111;27.80801
27.9080;27.90803;0.00104;27.90803
28.0081;28.00806;0.00072;28.00806
28.1081;28.10809;0.00101;28.10809
28.2081;28.20812;0.00088;28.20812
28.3082;28.30815;0.00123;28.30815
28.4082;28.40818;0.00104;28.40818
28.5082;28.50821;0.00097;28.50821
28.6082;28.60824;0.00078;28.60824
28.7083;28.70827;0.00129;28.70827
28.8083;28.80829;0.00115;28.80829
28.9083;28.90832;0.00157;28.90832
29.0084;29.00835;0.00106;29.00835
29.1084;29.10838;0.00121;29.10838
29.2084;29.20841;0.00083;29.20841
29.3084;29.30844;0.00108;29.30844
29.4085;29.40847;0.00081;29.40847
29.5085;29.50850;0.00097;29.50850
29.6085;29.60852;0.00079;29.60852
29.7086;29.70855;0.00092;29.70855
29.8086;29.80858;0.00111;29.80858
29.9086;29.90861;0.00125;29.90861
30.0086;30.00864;0.00100;30.00864
30.1087;30.10867;0.00107;30.10867
30.2087;30.20870;0.00105;30.20870
30.3087;30.30873;0.00091;30.30873
30.4088;30.40875;0.00122;30.40875
30.5088;30.50878;0.00105;30.50878
30.6088;30.60881;0.00119;30.60881
30.7088;30.70884;0.00049;30.70884
30.8089;30.80887;0.00109;30.80887
30.9089;30.90890;0.00110;30.90890
31.0089;31.00893;0.00105;31.00893
31.1090;31.10896;0.00110;31.10896
31.2090;31.20899;0.00128;31.20899
31.3090;31.30901;0.00127;31.30901
31.4090;31.40904;0.00153;31.40904
31.5091;31.50907;0.00102;31.50907
31.6091;31.60910;0.00073;31.60910
31.7091;31.70913;0.00073;31.70913
31.8092;31.80916;0.00113;31.80916
31.9092;31.90919;0.00138;31.90919
32.0092;32.00922;0.00085;32.00922
32.1092;32.10924;0.00099;32.10924
32.2093;32.20927;0.00090;32.20927
32.3093;32.30930;0.00099;32.30930
32.4093;32.40933;0.00094;32.40933
32.5094;32.50936;0.00105;32.50936
32.6094;32.60939;0.00114;32.60939
32.7094;32.70942;0.00085;32.70942
32.8094;32.80945;0.00109;32.80945
32.9095;32.90947;0.00131;32.90947
33.0095;33.00950;0.00110;33.00950
33.1095;33.10953;0.00113;33.10953
33.2096;33.20956;0.00105;33.20956
33.3096;33.30959;0.00093;33.30959
33.4096;33.40962;0.00105;33.40962
33.5096;33.50965;0.00114;33.50965
33.6097;33.60968;0.00110;33.60968
33.7097;33.70971;0.00086;33.70971
33.8097;33.80973;0.00081;33.80973
33.9098;33.90976;0.00104;33.90976
34.0098;34.00979;0.00144;34.00979
34.1098;34.10982;0.00131;34.10982
34.2098;34.20985;0.00099;34.20985
34.3099;34.30988;0.00120;34.30988
34.4099;34.40991;0.00100;34.40991
34.5099;34.50994;0.00102;34.50994
34.6100;34.60996;0.00107;34.60996
34.7100;34.70999;0.00104;34.70999
34.8100;34.81002;0.00111;34.81002
34.9101;34.91005;0.00120;34.91005
35.0101;35.01008;0.00124;35.01008
35.1101;35.11011;0.00106;35.11011
35.2101;35.21014;0.00103;35.21014
35.3102;35.31017;0.00100;35.31017
35.4102;35.41019;0.00100;35.41019
35.5102;35.51022;0.00089;35.51022
35.6103;35.61025;0.00119;35.61025
35.7103;35.71028;0.00116;35.71028
35.8103;35.81031;0.00072;35.81031
35.9103;35.91034;0.00074;35.91034
36.0104;36.01037;0.00114;36.01037
36.1104;36.11040;0.00098;36.11040
36.2104;36.21043;0.00103;36.21043
36.3105;36.31045;0.00105;36.31045
36.4105;36.41048;0.00117;36.41048
36.5105;36.51051;0.00068;36.51051
36.6105;36.61054;0.00091;36.61054
36.7106;36.71057;0.00117;36.71057
36.8106;36.81060;0.00131;36.81060
36.9106;36.91063;0.00083;36.91063
37.0107;37.01066;0.00098;37.01066
37.1107;37.11068;0.00098;37.11068
37.2107;37.21071;0.00100;37.21071
37.3107;37.31074;0.00119;37.31074
37.4108;37.41077;0.00120;37.41077
37.5108;37.51080;0.00120;37.51080
37.6108;37.61083;0.00096;37.61083
37.7109;37.71086;0.00108;37.71086
37.8109;37.81089;0.00092;37.81089
37.9109;37.91091;0.00114;37.91091
38.0109;38.01094;0.00087;38.01094
38.1110;38.11097;0.00085;38.11097
38.2110;38.21100;0.00079;38.21100
38.3110;38.31103;0.00095;38.31103
38.4111;38.41106;0.00100;38.41106
38.5111;38.51109;0.00108;38.51109
38.6111;38.61112;0.00082;38.61112
38.7111;38.71115;0.00083;38.71115
38.8112;38.81117;0.00110;38.81117
38.9112;38.91120;0.00070;38.91120
39.0112;39.01123;0.00094;39.01123
39.1113;39.11126;0.00058;39.11126
39.2113;39.21129;0.00111;39.21129
39.3113;39.31132;0.00115;39.31132
39.4113;39.41135;0.00079;39.41135
39.5114;39.51138;0.00135;39.51138
39.6114;39.61140;0.00110;39.61140
39.7114;39.71143;0.00122;39.71143
39.8115;39.81146;0.00102;39.81146
39.9115;39.91149;0.00067;39.91149
40.0115;40.01152;0.00111;40.01152
40.1115;40.11155;0.00087;40.11155
40.2116;40.21158;0.00091;40.21158
40.3116;40.31161;0.00099;40.31161
40.4116;40.41163;0.00080;40.41163
40.5117;40.51166;0.00113;40.51166
40.6117;40.61169;0.00118;40.61169
40.7117;40.71172;0.00102;40.71172
40.8118;40.81175;0.00147;40.81175
40.9118;40.91178;0.00107;40.91178
41.0118;41.01181;0.00085;41.01181
41.1118;41.11184;0.00107;41.11184
41.2119;41.21187;0.00118;41.21187
41.3119;41.31189;0.00123;41.31189
41.4119;41.41192;0.00137;41.41192
41.5120;41.51195;0.00077;41.51195
41.6120;41.61198;0.00083;41.61198
41.7120;41.71201;0.00140;41.71201
41.8120;41.81204;0.00077;41.81204
41.9121;41.91207;0.00104;41.91207
42.0121;42.01210;0.00096;42.01210
42.1121;42.11212;0.00091;42.11212
42.2122;42.21215;0.00098;42.21215
42.3122;42.31218;0.00083;42.31218
42.4122;42.41221;0.00105;42.41221
42.5122;42.51224;0.00091;42.51224
42.6123;42.61227;0.00067;42.61227
42.7123;42.71230;0.00117;42.71230
42.8123;42.81233;0.00060;42.81233
42.9124;42.91235;0.00074;42.91235
43.0124;43.01238;0.00087;43.01238
43.1124;43.11241;0.00111;43.11241
43.2124;43.21244;0.00102;43.21244
43.3125;43.31247;0.00094;43.31247
43.4125;43.41250;0.00095;43.41250
43.5125;43.51253;0.00118;43.51253
43.6126;43.61256;0.00093;43.61256
43.7126;43.71259;0.00122;43.71259
43.8126;43.81261;0.00103;43.81261
43.9126;43.91264;0.00086;43.91264
44.0127;44.01267;0.00102;44.01267
44.1127;44.11270;0.00077;44.11270
44.2127;44.21273;0.00091;44.21273
44.3128;44.31276;0.00068;44.31276
44.4128;44.41279;0.00079;44.41279
44.5128;44.51282;0.00100;44.51282
44.6128;44.61284;0.00086;44.61284
44.7129;44.71287;0.00087;44.71287
44.8129;44.81290;0.00070;44.81290
44.9129;44.91293;0.00085;44.91293
45.0130;45.01296;0.00068;45.01296
45.1130;45.11299;0.00065;45.11299
45.2130;45.21302;0.00120;45.21302
45.3130;45.31305;0.00120;45.31305
45.4131;45.41307;0.00103;45.41307
45.5131;45.51310;0.00088;45.51310
