Part protocol
File name;Part_Press_MP-001_2019-10-17_10-37-22__NOK.csv
Protocol version;6.00.03

Index;Result information;Process values - curve related;Process values - EO related;Evaluation objects settings;Switch signal settings;Device information;Servo;Channel-X settings;Channel-Y settings;Cycle control settings;Evaluation settings;Trigger Y settings;Block settings;Measuring curve;Measuring points;Sequence;
Line;10;30;40;70;100;120;140;150;190;220;240;250;260;270;280;2510;



Result information
Date;2019/10/17
Time;10:37:22
Cycle number;145
Total result;NOK
Triggered switch signals;
Part serial number;
Measuring program name;-----
Measuring program number;1
Zero X offset;0.00;mm
Tara Y offset;0.01;kN









Process values - curve related
Block X;369.98;mm;XMIN-X;0.00;mm
Block Y;10.72;kN;XMIN-Y;0.00;kN
Ref X;0.00;mm;XMAX-X;369.98;mm
Peak-peak X;369.98;mm;XMAX-Y;10.72;kN
Peak-peak Y;16.17;kN;YMIN-X;11.10;mm
;;;YMIN-Y;-0.98;kN
;;;YMAX-X;320.56;mm
;;;YMAX-Y;15.20;kN

Process values - EO related;Result;Entry;Exit;XMIN-X;XMIN-Y;XMAX-X;XMAX-Y;YMIN-Y;YMIN-X;YMAX-Y;YMAX-X;Calculated result;NOK cause;Violation X;Violation Y;Ref X;Ref Y;X at Delta-Y;Entrance-X;Entrance-Y;Exit-X;Exit-Y
;;;;mm;kN;mm;kN;kN;mm;kN;mm;-;-;mm;kN;mm;kN;mm;mm;kN;mm;kN
EO-01;None;
EO-02;None;
EO-03;None;
EO-04;None;
EO-05;None;
EO-06;None;
EO-07;None;
EO-08;None;
EO-09;None;
EO-10;None;


















Evaluation objects settings;Reaction;X reference;Y-Reference;XMin;XMax;YMin;YMax;Entry;Exit;Curve part;Catch zone X;Catch zone Y;EO Name;Description;Re-entry ignored;Generate statistics;X-Hysteresis;Y-Hysteresis;Down sampling rate;Calc limit min;Calc limit max;Grad limit min;Grad limit max;Hyst limit min;Hyst limit max;Speed limit min;Speed limit max;Time limit min;Time limit max;Is curve inside box;GetRef type;CalcInput1 | dx;CalcInput2 | dx;Calc operation;Work limit min;Work limit max;Average limit min;Average limit max;Max bending;Detection dX;Signal;Operation;State;Visualization offset X;Visualization offset Y;Delta-Y Max;X1Min;X1Max;X2Min;X2Max;Y1Min;Y1Max;Y2Min;Y2Max;-
EO-01;OFF
EO-02;OFF
EO-03;OFF
EO-04;OFF
EO-05;OFF
EO-06;OFF
EO-07;OFF
EO-08;OFF
EO-09;OFF
EO-10;OFF



















Switch signal settings;Channel;Threshold at;;Trigger from;Reference;Latch until
Type S1;OFF
Type S2;OFF

















Device information
Device type;maXYmos NC
Device type number;5847B0
Device serial number;05597NC
Firmware version;1.5.60 (r483ab8)
-
-
-
-
-
IP Address;192.168.1.21
Network name;Press
Profibus address;10
-
-
-
Device name;Press
Company name;
Comment;

Servo
Servo version;n/a;Servo max. speed;300.000;mm/s
Type NC Joining Module;n/a;Range min.;0.00;mm
Serial number NC j.mod.;n/a;Range max.;400.00;mm
Brake;Holding Brake 5.03 Nm;Servo reference position;0.00;mm
Operating mode;Manual Work;Max. jog speed;10.000;mm/s
Brake test;Disabled;Jog. range min;0.00;mm
Automatic power;False;Jog. range max;400.00;mm
;;Reference speed;10.000;mm/s

Channel-X settings
Use the settings from global setup;True
Sensor-X type;Servo
Unit;mm
Used range from;0.00;mm
Used range to;400.00;mm
Decimal places;2 (iiiii.ff)
-
-
-
-
-
Test point;0.00;mm
Tolerance;2.00;mm
Enable sensor test by dig-input;TRUE
Zoom from;0.00;mm
Zoom to;100.00;mm
Master Measurement Enable;FALSE
Master Measurement Nominal Position;0.00;mm
Encoder interpolation factor;-
Encoder electrical interface;-
Encoder referencing type;-
Encoder referencing edge;-
Encoder pulses per minute;-
Encoder use every nth-mark;-
Reference;-
Encoder reference points;-
Encoder coding;-
Encoder width;-
Encoder optimization;-
Encoder clock frequency;-
Termination resistor;-








Channel-Y settings
Use the settings from global setup;True
Sensor-Y type;Strain Gage
Unit;kN
Used range from;0.00;kN
Used range to;60.00;kN
Decimal places;2 (iiiii.ff)
Scaling by;Calibration Sheet
Sensitivity;60.00;kN;1.01440;mV/V
Zero point;0.00;kN;0.00634;mV/V
Invert signal;FALSE
Filter;OFF
Piezo reset;-
Test point;0.06;kN
Tolerance;6.00;kN
Enable sensor test by dig-input;FALSE
Zoom from;0.00;kN
Zoom to;1000.00;kN












Cycle control settings
Use the settings from global setup;True
Measuring function;Y (X, t)
Delta-X;User-Defined;0.1000;mm
START condition;Dig-Input
STOP condition;Dig-Input
Cycle time out;500.000;s
Turning point LEFT;NONE
Turning point RIGHT;YMAX
Cut curve at;NONE
Gradient Delta X;-









Evaluation settings
Capture only first NOK-EO for statistics;False
Hysteresis-X;0.0;%
Hysteresis-Y;0.0;%






Trigger Y settings
Threshold;0.00;kN
Value X at Trigger Y;0.00;mm
Approach from;BELOW






Block settings
Value X at block;XMAX
Block at;0.00;mm







Measuring curve
Number of measuring points;2220
Ref. Graph on;ABSOLUTE
Curve segment;0;1937;1936;2220;


Time;X(ABSOLUTE);Y;X(ABSOLUTE)


s;mm;kN;mm
0.0001;0.00300;0.00326;0.00300
0.1000;0.15390;0.08015;0.15390
0.2001;0.34510;0.07320;0.34510
0.3001;0.53450;0.03096;0.53450
0.4001;0.72390;0.05859;0.72390
0.5001;0.91330;0.05999;0.91330
0.6002;1.10200;0.05416;1.10200
0.7002;1.29100;0.11352;1.29100
0.8002;1.48020;0.06334;1.48020
0.9003;1.66900;0.08027;1.66900
1.0003;1.85810;0.05612;1.85810
1.1003;2.04710;0.04218;2.04710
1.2003;2.23640;0.07947;2.23640
1.3004;2.42580;0.05344;2.42580
1.4004;2.61450;0.04290;2.61450
1.5004;2.80340;0.03404;2.80340
1.6005;2.99270;0.09795;2.99270
1.7005;3.18150;0.10075;3.18150
1.8005;3.37060;0.06909;3.37060
1.9005;3.55950;0.08801;3.55950
2.0006;3.74880;0.11887;3.74880
2.1006;3.93830;0.08210;3.93830
2.2006;4.12700;0.08690;4.12700
2.3007;4.31590;0.01851;4.31590
2.4007;4.50510;0.00474;4.50510
2.5007;4.69390;0.02362;4.69390
2.6007;4.88320;0.03544;4.88320
2.7008;5.07200;0.02957;5.07200
2.8008;5.26130;0.01751;5.26130
2.9008;5.45070;0.00450;5.45070
3.0009;5.63940;-0.01395;5.63940
3.1009;5.82850;-0.00684;5.82850
3.2009;6.01760;0.00829;6.01760
3.3010;6.20640;0.02849;6.20640
3.4010;6.39570;0.09272;6.39570
3.5010;6.58490;0.06302;6.58490
3.6010;6.77380;0.02222;6.77380
3.7011;6.96320;-0.01682;6.96320
3.8011;7.15190;-0.02045;7.15190
3.9011;7.34100;-0.04441;7.34100
4.0012;7.53000;-0.06585;7.53000
4.1012;7.71890;-0.03926;7.71890
4.2012;7.90820;-0.03954;7.90820
4.3012;8.09740;-0.03690;8.09740
4.4013;8.28630;-0.03155;8.28630
4.5013;8.47560;-0.06876;8.47560
4.6013;8.66440;0.01472;8.66440
4.7014;8.85350;-0.01319;8.85350
4.8014;9.04250;0.00945;9.04250
4.9014;9.23130;0.04190;9.23130
5.0014;9.42070;-0.00676;9.42070
5.1015;9.60990;-0.07579;9.60990
5.2015;9.79880;-0.07786;9.79880
5.3015;9.98810;-0.07227;9.98810
5.4016;10.17680;-0.00676;10.17680
5.5016;10.36600;-0.05882;10.36600
5.6016;10.55490;-0.02744;10.55490
5.7016;10.74370;-0.06880;10.74370
5.8017;10.93360;-0.06137;10.93360
5.9017;11.12230;-0.04301;11.12230
6.0017;11.31120;-0.08106;11.31120
6.1018;11.50050;-0.00736;11.50050
6.2018;11.68930;-0.06082;11.68930
6.3018;11.87850;0.04242;11.87850
6.4018;12.06740;0.06350;12.06740
6.5019;12.25620;0.07208;12.25620
6.6019;12.44610;0.03228;12.44610
6.7019;12.63480;0.01220;12.63480
6.8020;12.82370;0.01615;12.82370
6.9020;13.01290;0.00797;13.01290
7.0020;13.20180;0.02410;13.20180
7.1020;13.39110;-0.05990;13.39110
7.2021;13.57980;-0.04600;13.57980
7.3021;13.76870;-0.04425;13.76870
7.4021;13.95860;-0.05307;13.95860
7.5022;14.14720;-0.02497;14.14720
7.6022;14.33630;-0.04137;14.33630
7.7022;14.52540;-0.04748;14.52540
7.8022;14.71420;-0.01782;14.71420
7.9023;14.90350;-0.03231;14.90350
8.0023;15.09220;-0.04050;15.09220
8.1023;15.28120;-0.04381;15.28120
8.2024;15.47100;-0.05810;15.47100
8.3024;15.65980;-0.01678;15.65980
8.4024;15.84880;-0.04441;15.84880
8.5024;16.03780;-0.02916;16.03780
8.6025;16.22670;-0.02241;16.22670
8.7025;16.41610;-0.03391;16.41610
8.8025;16.60470;-0.00988;16.60470
8.9026;16.79410;-0.02461;16.79410
9.0026;16.98350;0.00689;16.98350
9.1026;17.17220;-0.00716;17.17220
9.2026;17.36130;0.07612;17.36130
9.3027;17.55030;0.05919;17.55030
9.4027;17.73910;0.08538;17.73910
9.5027;17.92850;0.13289;17.92850
9.6028;18.11720;0.15325;18.11720
9.7028;18.30660;0.13596;18.30660
9.8028;18.49590;0.09492;18.49590
9.9029;18.68470;0.09073;18.68470
10.0029;18.87390;0.06534;18.87390
10.1029;19.06270;0.05871;19.06270
10.2029;19.25160;0.07400;19.25160
10.3030;19.44100;0.10933;19.44100
10.4030;19.62970;0.07192;19.62970
10.5030;19.81910;0.07077;19.81910
10.6031;20.00840;0.08366;20.00840
10.7031;20.19720;0.07767;20.19720
10.8031;20.38640;0.08370;20.38640
10.9031;20.57520;0.10394;20.57520
11.0032;20.76400;0.09576;20.76400
11.1032;20.95340;0.11241;20.95340
11.2032;21.14260;0.06777;21.14260
11.3033;21.33160;0.10326;21.33160
11.4033;21.52070;0.10151;21.52070
11.5033;21.70960;0.09656;21.70960
11.6033;21.89890;0.08023;21.89890
11.7034;22.08770;0.07029;22.08770
11.8034;22.27650;0.05356;22.27650
11.9034;22.46590;0.00705;22.46590
12.0035;22.65510;-0.00808;22.65510
12.1035;22.84410;0.01895;22.84410
12.2035;23.03320;0.00797;23.03320
12.3035;23.22200;-0.00161;23.22200
12.4036;23.41140;-0.01598;23.41140
12.5036;23.60010;-0.00461;23.60010
12.6036;23.78900;0.01460;23.78900
12.7037;23.97840;0.01647;23.97840
12.8037;24.16760;0.00625;24.16760
12.9037;24.35670;-0.03894;24.35670
13.0037;24.54560;0.00003;24.54560
13.1038;24.73450;0.01995;24.73450
13.2038;24.92390;-0.01227;24.92390
13.3038;25.11260;-0.01650;25.11260
13.4039;25.30150;0.01160;25.30150
13.5039;25.49080;-0.02085;25.49080
13.6039;25.68010;-0.04700;25.68010
13.7039;25.86920;-0.03263;25.86920
13.8040;26.05810;-0.02860;26.05810
13.9040;26.24690;-0.03143;26.24690
14.0040;26.43640;-0.05906;26.43640
14.1041;26.62500;-0.07567;26.62500
14.2041;26.81400;-0.01602;26.81400
14.3041;27.00370;-0.03554;27.00370
14.4041;27.19250;-0.07303;27.19250
14.5042;27.38170;-0.03155;27.38170
14.6042;27.57060;-0.03203;27.57060
14.7042;27.75950;-0.05754;27.75950
14.8043;27.94880;-0.03882;27.94880
14.9043;28.13750;-0.06437;28.13750
15.0043;28.32650;-0.05072;28.32650
15.1043;28.51610;-0.04521;28.51610
15.2044;28.70500;-0.06784;28.70500
15.3044;28.89420;-0.06684;28.89420
15.4044;29.08300;-0.05495;29.08300
15.5045;29.27190;-0.05742;29.27190
15.6045;29.46130;-0.08525;29.46130
15.7045;29.65000;-0.06792;29.65000
15.8046;29.83900;-0.04209;29.83900
15.9046;30.02860;-0.05551;30.02860
16.0046;30.21740;-0.03942;30.21740
16.1046;30.40670;-0.07024;30.40670
16.2047;30.59550;-0.04257;30.59550
16.3047;30.78440;-0.08253;30.78440
16.4047;30.97370;-0.06417;30.97370
16.5048;31.16250;-0.06273;31.16250
16.6048;31.35200;-0.06209;31.35200
16.7048;31.54100;-0.06349;31.54100
16.8048;31.72990;-0.04820;31.72990
16.9049;31.91920;-0.04521;31.91920
17.0049;32.10790;-0.01463;32.10790
17.1049;32.29680;0.01484;32.29680
17.2050;32.48620;0.00681;32.48620
17.3050;32.67490;0.03428;32.67490
17.4050;32.86450;0.01029;32.86450
17.5050;33.05350;0.01216;33.05350
17.6051;33.24230;-0.03954;33.24230
17.7051;33.43180;-0.06241;33.43180
17.8051;33.62040;-0.04764;33.62040
17.9052;33.80930;-0.06337;33.80930
18.0052;33.99860;-0.03423;33.99860
18.1052;34.18740;-0.03171;34.18740
18.2052;34.37710;-0.05503;34.37710
18.3053;34.56590;-0.03031;34.56590
18.4053;34.75480;0.00074;34.75480
18.5053;34.94420;0.02246;34.94420
18.6054;35.13290;0.01915;35.13290
18.7054;35.32190;0.03444;35.32190
18.8054;35.51110;0.06246;35.51110
18.9054;35.70030;0.00757;35.70030
19.0055;35.88960;0.03328;35.88960
19.1055;36.07840;0.03875;36.07840
19.2055;36.26730;0.04494;36.26730
19.3056;36.45670;0.05707;36.45670
19.4056;36.64530;0.05931;36.64530
19.5056;36.83440;0.05037;36.83440
19.6056;37.02350;0.06725;37.02350
19.7057;37.21280;0.07528;37.21280
19.8057;37.40210;0.03975;37.40210
19.9057;37.59080;0.05871;37.59080
20.0058;37.77970;0.06354;37.77970
20.1058;37.96910;0.03635;37.96910
20.2058;38.15790;0.01276;38.15790
20.3058;38.34690;0.01536;38.34690
20.4059;38.53590;0.02873;38.53590
20.5059;38.72520;0.02989;38.72520
20.6059;38.91460;0.01376;38.91460
20.7060;39.10330;0.03863;39.10330
20.8060;39.29220;0.04158;39.29220
20.9060;39.48150;0.06562;39.48150
21.0060;39.67030;0.07272;39.67030
21.1061;39.85940;0.10901;39.85940
21.2061;40.04840;0.09137;40.04840
21.3061;40.23770;0.10514;40.23770
21.4062;40.42710;0.03041;40.42710
21.5062;40.61570;0.05073;40.61570
21.6062;40.80460;0.04158;40.80460
21.7062;40.99400;0.06198;40.99400
21.8063;41.18270;0.07560;41.18270
21.9063;41.37190;0.04566;41.37190
22.0063;41.56130;0.02949;41.56130
22.1064;41.75010;0.02146;41.75010
22.2064;41.93960;0.05835;41.93960
22.3064;42.12820;0.05723;42.12820
22.4065;42.31720;0.02821;42.31720
22.5065;42.50640;0.02645;42.50640
22.6065;42.69520;0.09704;42.69520
22.7065;42.88450;0.06522;42.88450
22.8066;43.07370;0.08694;43.07370
22.9066;43.26260;0.01715;43.26260
23.0066;43.45200;0.03939;43.45200
23.1067;43.64070;0.03488;43.64070
23.2067;43.82980;-0.01423;43.82980
23.3067;44.01890;0.02705;44.01890
23.4067;44.20770;0.00154;44.20770
23.5068;44.39700;0.02326;44.39700
23.6068;44.58620;0.07196;44.58620
23.7068;44.77510;0.05244;44.77510
23.8069;44.96450;0.03085;44.96450
23.9069;45.15320;0.03340;45.15320
24.0069;45.34220;0.00310;45.34220
24.1069;45.53130;-0.00245;45.53130
24.2070;45.72010;-0.00732;45.72010
24.3070;45.91000;0.00031;45.91000
24.4070;46.09870;0.02146;46.09870
24.5071;46.28760;0.01328;46.28760
24.6071;46.47690;0.02466;46.47690
24.7071;46.66570;0.01735;46.66570
24.8071;46.85470;-0.01502;46.85470
24.9072;47.04370;-0.04600;47.04370
25.0072;47.23260;-0.05527;47.23260
25.1072;47.42240;-0.05762;47.42240
25.2073;47.61110;-0.03694;47.61110
25.3073;47.80000;-0.04572;47.80000
25.4073;47.98940;-0.05239;47.98940
25.5073;48.17810;-0.04217;48.17810
25.6074;48.36730;-0.05682;48.36730
25.7074;48.55620;0.00198;48.55620
25.8074;48.74500;0.05412;48.74500
25.9075;48.93490;0.02238;48.93490
26.0075;49.12360;-0.01798;49.12360
26.1075;49.31250;0.03464;49.31250
26.2075;49.50180;0.01408;49.50180
26.3076;49.69060;0.00334;49.69060
26.4076;49.87980;0.00406;49.87980
26.5076;50.06860;0.00969;50.06860
26.6077;50.25750;0.00154;50.25750
26.7077;50.44740;0.08302;50.44740
26.8077;50.63610;-0.00033;50.63610
26.9077;50.82510;-0.03235;50.82510
27.0078;51.01420;-0.01271;51.01420
27.1078;51.20300;-0.02077;51.20300
27.2078;51.39240;0.00857;51.39240
27.3079;51.58110;-0.00113;51.58110
27.4079;51.77050;0.01963;51.77050
27.5079;51.95990;-0.02732;51.95990
27.6079;52.14850;0.00038;52.14850
27.7080;52.33760;-0.00401;52.33760
27.8080;52.52670;0.00342;52.52670
27.9080;52.71550;0.00402;52.71550
28.0081;52.90490;-0.03327;52.90490
28.1081;53.09350;-0.02752;53.09350
28.2081;53.28300;-0.02744;53.28300
28.3082;53.47230;-0.04525;53.47230
28.4082;53.66100;-0.00013;53.66100
28.5082;53.85010;0.02769;53.85010
28.6082;54.03910;0.00993;54.03910
28.7083;54.22800;0.04158;54.22800
28.8083;54.41730;0.05903;54.41730
28.9083;54.60600;0.03540;54.60600
29.0084;54.79540;0.03771;54.79540
29.1084;54.98470;-0.02501;54.98470
29.2084;55.17350;0.01033;55.17350
29.3084;55.36260;-0.03878;55.36260
29.4085;55.55160;-0.02029;55.55160
29.5085;55.74040;-0.01147;55.74040
29.6085;55.92980;-0.04010;55.92980
29.7086;56.11900;-0.00121;56.11900
29.8086;56.30790;0.01140;56.30790
29.9086;56.49720;0.01404;56.49720
30.0086;56.68590;0.00709;56.68590
30.1087;56.87510;0.02250;56.87510
30.2087;57.06400;0.03923;57.06400
30.3087;57.25280;0.04542;57.25280
30.4088;57.44230;0.05492;57.44230
30.5088;57.63140;0.03284;57.63140
30.6088;57.82040;0.03967;57.82040
30.7088;58.00970;0.08977;58.00970
30.8089;58.19840;0.10111;58.19840
30.9089;58.38770;0.14893;58.38770
31.0089;58.57640;0.10805;58.57640
31.1090;58.76530;0.10179;58.76530
31.2090;58.95470;0.06031;58.95470
31.3090;59.14390;0.07767;59.14390
31.4090;59.33290;0.04809;59.33290
31.5091;59.52200;0.02162;59.52200
31.6091;59.71090;0.05496;59.71090
31.7091;59.90020;0.07971;59.90020
31.8092;60.08890;0.08187;60.08890
31.9092;60.27780;0.03384;60.27780
32.0092;60.46720;0.04222;60.46720
32.1092;60.65640;0.05073;60.65640
32.2093;60.84540;0.02709;60.84540
32.3093;61.03450;0.03312;61.03450
32.4093;61.22330;0.06486;61.22330
32.5094;61.41270;0.07029;61.41270
32.6094;61.60140;0.09887;61.60140
32.7094;61.79030;0.04318;61.79030
32.8094;61.98010;0.09109;61.98010
32.9095;62.16890;0.04685;62.16890
33.0095;62.35800;0.05160;62.35800
33.1095;62.54690;0.07388;62.54690
33.2096;62.73580;0.02929;62.73580
33.3096;62.92520;0.04322;62.92520
33.4096;63.11390;0.05280;63.11390
33.5096;63.30280;0.10434;63.30280
33.6097;63.49260;0.09356;63.49260
33.7097;63.68140;0.06550;63.68140
33.8097;63.87050;0.07133;63.87050
33.9098;64.05940;0.10522;64.05940
34.0098;64.24820;0.08262;64.24820
34.1098;64.43760;0.07727;64.43760
34.2098;64.62630;0.10566;64.62630
34.3099;64.81530;0.07432;64.81530
34.4099;65.00500;-0.00017;65.00500
34.5099;65.19370;0.03855;65.19370
34.6100;65.38300;0.01564;65.38300
34.7100;65.57180;0.03719;65.57180
34.8100;65.76070;0.04889;65.76070
34.9101;65.95010;-0.01574;65.95010
35.0101;66.13880;-0.01590;66.13880
35.1101;66.32830;-0.00053;66.32830
35.2101;66.51740;0.01060;66.51740
35.3102;66.70620;0.00841;66.70620
35.4102;66.89550;0.02106;66.89550
35.5102;67.08420;-0.01578;67.08420
35.6103;67.27310;-0.00285;67.27310
35.7103;67.46260;-0.01431;67.46260
35.8103;67.65130;0.00334;67.65130
35.9103;67.84080;0.04095;67.84080
36.0104;68.02990;0.04598;68.02990
36.1104;68.21870;0.01312;68.21870
36.2104;68.40810;0.06031;68.40810
36.3105;68.59680;0.02250;68.59680
36.4105;68.78560;0.04402;68.78560
36.5105;68.97500;0.02729;68.97500
36.6105;69.16380;0.00162;69.16380
36.7106;69.35330;0.02126;69.35330
36.8106;69.54230;0.02282;69.54230
36.9106;69.73120;0.00997;69.73120
37.0107;69.92050;0.02909;69.92050
37.1107;70.10920;0.03520;70.10920
37.2107;70.29810;0.03124;70.29810
37.3107;70.48750;-0.03634;70.48750
37.4108;70.67620;-0.01335;70.67620
37.5108;70.86580;-0.04856;70.86580
37.6108;71.05480;-0.03690;71.05480
37.7109;71.24360;-0.02536;71.24360
37.8109;71.43300;0.03296;71.43300
37.9109;71.62170;-0.04165;71.62170
38.0109;71.81060;-0.02640;71.81060
38.1110;71.99990;-0.00644;71.99990
38.2110;72.18910;-0.02353;72.18910
38.3110;72.37830;-0.00976;72.37830
38.4111;72.56720;0.00314;72.56720
38.5111;72.75600;-0.00101;72.75600
38.6111;72.94550;0.04506;72.94550
38.7111;73.13420;0.04610;73.13420
38.8112;73.32320;0.04194;73.32320
38.9112;73.51230;0.04306;73.51230
39.0112;73.70160;0.06937;73.70160
39.1113;73.89090;0.04757;73.89090
39.2113;74.07960;0.07819;74.07960
39.3113;74.26850;0.11145;74.26850
39.4113;74.45790;0.04103;74.45790
39.5114;74.64660;0.06318;74.64660
39.6114;74.83560;0.06083;74.83560
39.7114;75.02470;0.00945;75.02470
39.8115;75.21400;0.02582;75.21400
39.9115;75.40340;0.00909;75.40340
40.0115;75.59210;0.02645;75.59210
40.1115;75.78100;0.01332;75.78100
40.2116;75.97040;0.01564;75.97040
40.3116;76.15910;0.04378;76.15910
40.4116;76.34820;0.00985;76.34820
40.5117;76.53760;0.02689;76.53760
40.6117;76.72650;0.02665;76.72650
40.7117;76.91590;0.02114;76.91590
40.8118;77.10460;0.01244;77.10460
40.9118;77.29350;0.00589;77.29350
41.0118;77.48280;0.01380;77.48280
41.1118;77.67160;0.00258;77.67160
41.2119;77.86070;0.07133;77.86070
41.3119;78.05010;0.01915;78.05010
41.4119;78.23900;0.00809;78.23900
41.5120;78.42840;0.03743;78.42840
41.6120;78.61700;0.05037;78.61700
41.7120;78.80600;0.03380;78.80600
41.8120;78.99530;0.04554;78.99530
41.9121;79.18410;0.07576;79.18410
42.0121;79.37320;0.10889;79.37320
42.1121;79.56260;0.09141;79.56260
42.2122;79.75140;0.11073;79.75140
42.3122;79.94090;0.11424;79.94090
42.4122;80.12950;0.10394;80.12950
42.5122;80.31850;0.10993;80.31850
42.6123;80.50770;0.09660;80.50770
42.7123;80.69650;0.10183;80.69650
42.8123;80.88630;0.12554;80.88630
42.9124;81.07500;0.11089;81.07500
43.0124;81.26390;0.11552;81.26390
43.1124;81.45330;0.09927;81.45330
43.2124;81.64200;0.08618;81.64200
43.3125;81.83100;0.12271;81.83100
43.4125;82.02010;0.09540;82.02010
43.5125;82.20900;0.10183;82.20900
43.6126;82.39870;0.05987;82.39870
43.7126;82.58750;0.09652;82.58750
43.8126;82.77640;0.05843;82.77640
43.9126;82.96570;0.10003;82.96570
44.0127;83.15450;0.05616;83.15450
44.1127;83.34350;0.08885;83.34350
44.2127;83.53260;0.07260;83.53260
44.3128;83.72140;0.06993;83.72140
44.4128;83.91120;0.06881;83.91120
44.5128;84.10000;0.07033;84.10000
44.6128;84.28890;0.06047;84.28890
44.7129;84.47820;0.05659;84.47820
44.8129;84.66700;0.07001;84.66700
